# calculated spectrum vs Hmin, 0 rad/s, zero temp
# /rota/Analysis/NMRcalc/spinwaves/Spinwave_relaxation/2D

100.000000  213.752459 268.685783 321.126743 371.062919  614.696000 669.950097 722.691826 772.902235  1017.373974 1072.952299 1125.989306 1176.475259  1421.172826 1477.075076 1530.413214 1581.174873
250.000000  220.286039 307.146708 391.604520 473.653178  618.395494 705.761081 790.690923 873.186904  1018.237871 1106.112471 1191.517127 1274.456054  1419.186891 1507.572100 1593.455835 1676.845320
500.000000  226.905975 349.974147 470.655010 588.949860  620.222586 744.015721 865.382323 984.332618  1015.268902 1139.791515 1261.851074 1381.457643  1411.395707 1536.652955 1659.411230 1779.681895
750.000000  231.406261 382.323648 530.850941 676.991625  619.858253 771.677014 921.064107 1068.029664  1010.035766 1162.761733 1313.016647 1460.812480  1401.265039 1554.906424 1706.038009 1854.670133
1000.000000  234.788132 409.207946 581.230941 750.861095  618.306799 793.782899 966.818957 1137.424231  1003.545792 1180.085725 1354.143299 1525.730713  1389.805152 1567.420217 1742.510770 1915.088000
1500.000000  239.564891 453.443513 664.907966 873.962973  613.008098 828.219260 1040.969559 1251.266459  988.157858 1204.713306 1418.758819 1630.306682  1364.256276 1582.173987 1797.530854 2010.343754
2000.000000  242.655931 489.824344 734.558829 976.865779  605.731874 854.486798 1100.756045 1344.546606  970.495344 1220.854092 1468.669619 1713.956696  1336.121875 1588.110637 1837.494485 2084.299260
2500.000000  244.604565 521.118252 795.176207 1066.787655  596.999250 875.344728 1151.173861 1424.496209  951.056201 1231.259030 1508.874801 1783.925241  1305.873830 1587.971786 1867.403846 2144.210093
3000.000000  245.681686 548.738223 849.312748 1147.420142  587.054257 892.187388 1194.757349 1494.786351  930.057906 1237.309159 1541.895029 1843.864556  1273.701724 1583.129555 1889.765727 2193.703605
3500.000000  246.039929 573.457770 898.384623 1220.837958  576.075299 905.601587 1232.689279 1557.218109  907.898332 1576.082707 1568.278263 1895.054768  1570.783198 1576.082707 2248.614570 2923.837406
4000.000000  245.769724 596.008029 943.765558 1289.074092  563.915969 916.711515 1267.002246 1614.825983  883.563536 1238.887582 1591.629397 1941.805236  1203.485431 1561.348605 1916.519906 2268.969901
